ENVI
; this file was created using PlantCV version 3.14.1+743.gff91bfd
; original file: 4-22-22_right_same_B73
interleave = bil
samples = 43
lines = 31
bands = 580
data type = 12
wavelength units = nm
wavelength = {
366.551,
367.656,
368.76,
369.865,
370.97,
372.076,
373.181,
374.287,
375.393,
376.5,
377.606,
378.713,
379.82,
380.928,
382.035,
383.143,
384.251,
385.36,
386.468,
387.577,
388.686,
389.796,
390.905,
392.015,
393.126,
394.236,
395.347,
396.458,
397.569,
398.68,
399.792,
400.904,
402.016,
403.128,
404.241,
405.354,
406.467,
407.581,
408.695,
409.809,
410.923,
412.037,
413.152,
414.267,
415.382,
416.498,
417.613,
418.729,
419.846,
420.962,
422.079,
423.196,
424.313,
425.431,
426.549,
427.667,
428.785,
429.904,
431.022,
432.141,
433.261,
434.38,
435.5,
436.62,
437.74,
438.861,
439.982,
441.103,
442.224,
443.346,
444.468,
445.59,
446.712,
447.835,
448.958,
450.081,
451.204,
452.328,
453.452,
454.576,
455.7,
456.825,
457.95,
459.075,
460.2,
461.326,
462.452,
463.578,
464.704,
465.831,
466.958,
468.085,
469.212,
470.34,
471.468,
472.596,
473.725,
474.853,
475.982,
477.112,
478.241,
479.371,
480.501,
481.631,
482.761,
483.892,
485.023,
486.154,
487.286,
488.418,
489.55,
490.682,
491.814,
492.947,
494.08,
495.213,
496.347,
497.481,
498.615,
499.749,
500.883,
502.018,
503.153,
504.289,
505.424,
506.56,
507.696,
508.832,
509.969,
511.106,
512.243,
513.38,
514.518,
515.655,
516.794,
517.932,
519.07,
520.209,
521.348,
522.488,
523.627,
524.767,
525.907,
527.048,
528.188,
529.329,
530.47,
531.612,
532.753,
533.895,
535.037,
536.18,
537.322,
538.465,
539.608,
540.752,
541.896,
543.039,
544.184,
545.328,
546.473,
547.618,
548.763,
549.908,
551.054,
552.2,
553.346,
554.493,
555.639,
556.786,
557.934,
559.081,
560.229,
561.377,
562.525,
563.673,
564.822,
565.971,
567.12,
568.27,
569.42,
570.57,
571.72,
572.87,
574.021,
575.172,
576.324,
577.475,
578.627,
579.779,
580.931,
582.084,
583.237,
584.39,
585.543,
586.696,
587.85,
589.004,
590.159,
591.313,
592.468,
593.623,
594.779,
595.934,
597.09,
598.246,
599.402,
600.559,
601.716,
602.873,
604.03,
605.188,
606.346,
607.504,
608.662,
609.821,
610.98,
612.139,
613.298,
614.458,
615.618,
616.778,
617.939,
619.099,
620.26,
621.421,
622.583,
623.744,
624.906,
626.069,
627.231,
628.394,
629.557,
630.72,
631.883,
633.047,
634.211,
635.375,
636.54,
637.704,
638.869,
640.035,
641.2,
642.366,
643.532,
644.698,
645.865,
647.031,
648.198,
649.366,
650.533,
651.701,
652.869,
654.037,
655.206,
656.375,
657.544,
658.713,
659.882,
661.052,
662.222,
663.393,
664.563,
665.734,
666.905,
668.076,
669.248,
670.42,
671.592,
672.764,
673.937,
675.11,
676.283,
677.456,
678.63,
679.804,
680.978,
682.152,
683.327,
684.502,
685.677,
686.852,
688.028,
689.204,
690.38,
691.556,
692.733,
693.91,
695.087,
696.264,
697.442,
698.62,
699.798,
700.976,
702.155,
703.334,
704.513,
705.693,
706.872,
708.052,
709.233,
710.413,
711.594,
712.775,
713.956,
715.137,
716.319,
717.501,
718.683,
719.866,
721.049,
722.232,
723.415,
724.598,
725.782,
726.966,
728.15,
729.335,
730.52,
731.705,
732.89,
734.075,
735.261,
736.447,
737.634,
738.82,
740.007,
741.194,
742.381,
743.569,
744.757,
745.945,
747.133,
748.322,
749.511,
750.7,
751.889,
753.079,
754.268,
755.458,
756.649,
757.839,
759.03,
760.221,
761.413,
762.604,
763.796,
764.988,
766.181,
767.373,
768.566,
769.759,
770.953,
772.147,
773.34,
774.535,
775.729,
776.924,
778.119,
779.314,
780.509,
781.705,
782.901,
784.097,
785.293,
786.49,
787.687,
788.884,
790.082,
791.28,
792.477,
793.676,
794.874,
796.073,
797.272,
798.471,
799.671,
800.87,
802.07,
803.271,
804.471,
805.672,
806.873,
808.074,
809.276,
810.477,
811.679,
812.882,
814.084,
815.287,
816.49,
817.693,
818.897,
820.101,
821.305,
822.509,
823.714,
824.919,
826.124,
827.329,
828.534,
829.74,
830.946,
832.153,
833.359,
834.566,
835.773,
836.981,
838.188,
839.396,
840.604,
841.813,
843.021,
844.23,
845.439,
846.649,
847.858,
849.068,
850.278,
851.489,
852.699,
853.91,
855.121,
856.333,
857.545,
858.756,
859.969,
861.181,
862.394,
863.607,
864.82,
866.033,
867.247,
868.461,
869.675,
870.89,
872.104,
873.319,
874.535,
875.75,
876.966,
878.182,
879.398,
880.614,
881.831,
883.048,
884.265,
885.483,
886.701,
887.919,
889.137,
890.355,
891.574,
892.793,
894.013,
895.232,
896.452,
897.672,
898.892,
900.113,
901.334,
902.555,
903.776,
904.998,
906.219,
907.441,
908.664,
909.886,
911.109,
912.332,
913.556,
914.779,
916.003,
917.227,
918.451,
919.676,
920.901,
922.126,
923.351,
924.577,
925.803,
927.029,
928.255,
929.482,
930.709,
931.936,
933.164,
934.391,
935.619,
936.847,
938.076,
939.304,
940.533,
941.762,
942.992,
944.222,
945.452,
946.682,
947.912,
949.143,
950.374,
951.605,
952.836,
954.068,
955.3,
956.532,
957.765,
958.998,
960.231,
961.464,
962.697,
963.931,
965.165,
966.399,
967.634,
968.869,
970.104,
971.339,
972.574,
973.81,
975.046,
976.282,
977.519,
978.756,
979.993,
981.23,
982.468,
983.705,
984.944,
986.182,
987.42,
988.659,
989.898,
991.138,
992.377,
993.617,
994.857,
996.097,
997.338,
998.579,
999.82,
1001.061,
1002.303,
1003.545,
1004.787,
1006.029,
1007.272,
1008.515,
1009.758,
1011.001,
1012.245,
1013.489,
1014.733,
1015.977,
1017.222,
1018.467,
1019.712,
1020.958,
1022.203,
1023.449,
1024.695,
1025.942,
1027.189,
1028.435,
1029.683,
1030.93,
1032.178,
1033.426,
1034.674,
1035.922,
1037.171,
1038.42,
1039.669,
1040.919,
1042.169,
1043.419,
1044.669,
1045.919,
1047.17,
1048.421
}